#K-Path(1/A) Energy-Level(eV)
# NKPTS & NBANDS: 120  24
# Band-Index    1
   0.00000    -19.959509
   0.04542    -19.954128
   0.09085    -19.940730
   0.13627    -19.920848
   0.18170    -19.894416
   0.22712    -19.857884
   0.27255    -19.815673
   0.31797    -19.767008
   0.36340    -19.713017
   0.40882    -19.653468
   0.45425    -19.589815
   0.49967    -19.523174
   0.54510    -19.454938
   0.59052    -19.386772
   0.63595    -19.320747
   0.68137    -19.258735
   0.72680    -19.205877
   0.77222    -19.163719
   0.81765    -19.136493
   0.86307    -19.127037
   0.86307    -19.127037
   0.90850    -19.123647
   0.95392    -19.113509
   0.99935    -19.096770
   1.04477    -19.073897
   1.09020    -19.044582
   1.13562    -19.009896
   1.18105    -18.970151
   1.22647    -18.925898
   1.27190    -18.877600
   1.31732    -18.826846
   1.36275    -18.773818
   1.40817    -18.719790
   1.45360    -18.666112
   1.49902    -18.613404
   1.54445    -18.565117
   1.58987    -18.523201
   1.63530    -18.489771
   1.68072    -18.467591
   1.72615    -18.459879
   1.72615    -18.459879
   1.79039    -18.475423
   1.85463    -18.519578
   1.91887    -18.587104
   1.98311    -18.674617
   2.04735    -18.776643
   2.11159    -18.888609
   2.17583    -19.007044
   2.24007    -19.127792
   2.30431    -19.248962
   2.36855    -19.367065
   2.43279    -19.478812
   2.49703    -19.583239
   2.56127    -19.677466
   2.62551    -19.760100
   2.68975    -19.829510
   2.75399    -19.884694
   2.81823    -19.924924
   2.88247    -19.950079
   2.94671    -19.959509
   2.94671    -19.959509
   3.02539    -19.945401
   3.10407    -19.908684
   3.18275    -19.849886
   3.26143    -19.766943
   3.34010    -19.664281
   3.41878    -19.543052
   3.49746    -19.406048
   3.57614    -19.255612
   3.65482    -19.097613
   3.73350    -18.933447
   3.81217    -18.768481
   3.89085    -18.607178
   3.96953    -18.455934
   4.04821    -18.317099
   4.12689    -18.196693
   4.20556    -18.097698
   4.28424    -18.024223
   4.36292    -17.979956
   4.44160    -17.964915
   4.44160    -17.964915
   4.50584    -17.974366
   4.57008    -18.001297
   4.63432    -18.045838
   4.69856    -18.106458
   4.76280    -18.180252
   4.82704    -18.264422
   4.89128    -18.354296
   4.95552    -18.448930
   5.01976    -18.545309
   5.08400    -18.640223
   5.14824    -18.732576
   5.21249    -18.817778
   5.27673    -18.895690
   5.34097    -18.963967
   5.40521    -19.021057
   5.46945    -19.066441
   5.53369    -19.100001
   5.59793    -19.120254
   5.66217    -19.127037
   5.66217    -17.964915
   5.70759    -17.968637
   5.75302    -17.979389
   5.79844    -17.996478
   5.84387    -18.020766
   5.88929    -18.050513
   5.93472    -18.084252
   5.98014    -18.121902
   6.02557    -18.161787
   6.07099    -18.202480
   6.11642    -18.243397
   6.16184    -18.282556
   6.20727    -18.320144
   6.25269    -18.355113
   6.29812    -18.385708
   6.34354    -18.411455
   6.38897    -18.432779
   6.43439    -18.447973
   6.47982    -18.456773
   6.52524    -18.459879
 
# Band-Index    2
   6.52524    -17.918168
   6.47982    -17.918471
   6.43439    -17.919891
   6.38897    -17.921373
   6.34354    -17.922862
   6.29812    -17.925646
   6.25269    -17.928551
   6.20727    -17.931275
   6.16184    -17.934767
   6.11642    -17.939196
   6.07099    -17.942863
   6.02557    -17.946719
   5.98014    -17.950169
   5.93472    -17.953351
   5.88929    -17.956625
   5.84387    -17.959075
   5.79844    -17.961035
   5.75302    -17.963471
   5.70759    -17.964613
   5.66217    -17.964915
   5.66217    -18.141910
   5.59793    -18.140134
   5.53369    -18.131656
   5.46945    -18.117998
   5.40521    -18.100634
   5.34097    -18.080244
   5.27673    -18.058473
   5.21249    -18.035885
   5.14824    -18.015242
   5.08400    -17.995938
   5.01976    -17.980630
   4.95552    -17.968510
   4.89128    -17.961390
   4.82704    -17.957838
   4.76280    -17.956716
   4.69856    -17.957392
   4.63432    -17.959031
   4.57008    -17.961771
   4.50584    -17.964323
   4.44160    -17.964915
   4.44160    -17.964915
   4.36292    -17.961532
   4.28424    -17.951972
   4.20556    -17.938128
   4.12689    -17.919908
   4.04821    -17.897643
   3.96953    -17.872094
   3.89085    -17.844934
   3.81217    -17.818396
   3.73350    -17.791696
   3.65482    -17.766608
   3.57614    -17.744257
   3.49746    -17.724760
   3.41878    -17.708280
   3.34010    -17.695620
   3.26143    -17.685731
   3.18275    -17.678606
   3.10407    -17.674647
   3.02539    -17.671964
   2.94671    -17.671103
   2.94671    -17.671103
   2.88247    -17.672915
   2.81823    -17.678310
   2.75399    -17.687108
   2.68975    -17.698514
   2.62551    -17.712944
   2.56127    -17.729397
   2.49703    -17.748351
   2.43279    -17.768719
   2.36855    -17.788668
   2.30431    -17.809138
   2.24007    -17.829033
   2.17583    -17.849020
   2.11159    -17.865519
   2.04735    -17.880372
   1.98311    -17.893898
   1.91887    -17.903628
   1.85463    -17.911886
   1.79039    -17.916590
   1.72615    -17.918168
   1.72615    -17.918168
   1.68072    -17.919789
   1.63530    -17.924894
   1.58987    -17.932718
   1.54445    -17.943095
   1.49902    -17.956623
   1.45360    -17.971827
   1.40817    -17.988626
   1.36275    -18.006780
   1.31732    -18.025271
   1.27190    -18.043240
   1.22647    -18.061491
   1.18105    -18.078612
   1.13562    -18.094272
   1.09020    -18.108413
   1.04477    -18.120589
   0.99935    -18.130170
   0.95392    -18.137258
   0.90850    -18.141566
   0.86307    -18.141910
   0.86307    -18.141910
   0.81765    -18.135917
   0.77222    -18.115674
   0.72680    -18.084945
   0.68137    -18.047020
   0.63595    -18.005219
   0.59052    -17.961983
   0.54510    -17.919348
   0.49967    -17.878719
   0.45425    -17.841112
   0.40882    -17.807010
   0.36340    -17.776623
   0.31797    -17.750979
   0.27255    -17.728738
   0.22712    -17.710813
   0.18170    -17.696318
   0.13627    -17.685138
   0.09085    -17.677287
   0.04542    -17.672633
   0.00000    -17.671103
 
# Band-Index    3
   0.00000    -17.671103
   0.04542    -17.670140
   0.09085    -17.667266
   0.13627    -17.662574
   0.18170    -17.656160
   0.22712    -17.647638
   0.27255    -17.638845
   0.31797    -17.628390
   0.36340    -17.615469
   0.40882    -17.603576
   0.45425    -17.591398
   0.49967    -17.579257
   0.54510    -17.567608
   0.59052    -17.556673
   0.63595    -17.546772
   0.68137    -17.538200
   0.72680    -17.531219
   0.77222    -17.526045
   0.81765    -17.522838
   0.86307    -17.519563
   0.86307    -17.519563
   0.90850    -17.523479
   0.95392    -17.528723
   0.99935    -17.537371
   1.04477    -17.549338
   1.09020    -17.564506
   1.13562    -17.582734
   1.18105    -17.604492
   1.22647    -17.628623
   1.27190    -17.654983
   1.31732    -17.684675
   1.36275    -17.715182
   1.40817    -17.746656
   1.45360    -17.779522
   1.49902    -17.813460
   1.54445    -17.844524
   1.58987    -17.873478
   1.63530    -17.896914
   1.68072    -17.912515
   1.72615    -17.918168
   1.72615    -17.918168
   1.79039    -17.912319
   1.85463    -17.894650
   1.91887    -17.869065
   1.98311    -17.840612
   2.04735    -17.808610
   2.11159    -17.778489
   2.17583    -17.750321
   2.24007    -17.724734
   2.30431    -17.703725
   2.36855    -17.687151
   2.43279    -17.675035
   2.49703    -17.667024
   2.56127    -17.662390
   2.62551    -17.661396
   2.68975    -17.662848
   2.75399    -17.665765
   2.81823    -17.668615
   2.88247    -17.670438
   2.94671    -17.671103
   2.94671    -17.671103
   3.02539    -17.671964
   3.10407    -17.674647
   3.18275    -17.678606
   3.26143    -17.685731
   3.34010    -17.695620
   3.41878    -17.708280
   3.49746    -17.724760
   3.57614    -17.744257
   3.65482    -17.766608
   3.73350    -17.791696
   3.81217    -17.818396
   3.89085    -17.844934
   3.96953    -17.872094
   4.04821    -17.897642
   4.12689    -17.919908
   4.20556    -17.938128
   4.28424    -17.951972
   4.36292    -17.961532
   4.44160    -17.964915
   4.44160    -17.964915
   4.50584    -17.962292
   4.57008    -17.953581
   4.63432    -17.940215
   4.69856    -17.923072
   4.76280    -17.900944
   4.82704    -17.874317
   4.89128    -17.844601
   4.95552    -17.811391
   5.01976    -17.777606
   5.08400    -17.741547
   5.14824    -17.705104
   5.21249    -17.668217
   5.27673    -17.634214
   5.34097    -17.601911
   5.40521    -17.574652
   5.46945    -17.552251
   5.53369    -17.535559
   5.59793    -17.525239
   5.66217    -17.519563
   5.66217    -17.964915
   5.70759    -17.964613
   5.75302    -17.963471
   5.79844    -17.961035
   5.84387    -17.959075
   5.88929    -17.956625
   5.93472    -17.953351
   5.98014    -17.950169
   6.02557    -17.946719
   6.07099    -17.942863
   6.11642    -17.939196
   6.16184    -17.934767
   6.20727    -17.931275
   6.25269    -17.928551
   6.29812    -17.925646
   6.34354    -17.922862
   6.38897    -17.921373
   6.43439    -17.919891
   6.47982    -17.918471
   6.52524    -17.918168
 
# Band-Index    4
   6.52524    -13.543895
   6.47982    -13.542369
   6.43439    -13.537841
   6.38897    -13.530409
   6.34354    -13.520273
   6.29812    -13.507762
   6.25269    -13.493106
   6.20727    -13.476702
   6.16184    -13.459069
   6.11642    -13.440668
   6.07099    -13.421941
   6.02557    -13.403503
   5.98014    -13.385723
   5.93472    -13.369157
   5.88929    -13.354263
   5.84387    -13.341467
   5.79844    -13.331118
   5.75302    -13.323520
   5.70759    -13.318899
   5.66217    -13.317334
   5.66217    -13.604426
   5.59793    -13.602841
   5.53369    -13.598064
   5.46945    -13.590168
   5.40521    -13.579298
   5.34097    -13.565530
   5.27673    -13.549126
   5.21249    -13.530318
   5.14824    -13.509530
   5.08400    -13.487095
   5.01976    -13.463622
   4.95552    -13.439639
   4.89128    -13.415919
   4.82704    -13.393163
   4.76280    -13.372089
   4.69856    -13.353526
   4.63432    -13.338193
   4.57008    -13.326774
   4.50584    -13.319729
   4.44160    -13.317334
   4.44160    -13.317334
   4.36292    -13.319852
   4.28424    -13.327578
   4.20556    -13.341076
   4.12689    -13.360699
   4.04821    -13.385825
   3.96953    -13.414278
   3.89085    -13.442679
   3.81217    -13.467726
   3.73350    -13.486533
   3.65482    -13.497374
   3.57614    -13.499602
   3.49746    -13.493613
   3.41878    -13.480668
   3.34010    -13.463002
   3.26143    -13.443290
   3.18275    -13.424793
   3.10407    -13.410899
   3.02539    -13.403795
   2.94671    -13.402004
   2.94671    -13.402004
   2.88247    -13.403848
   2.81823    -13.410696
   2.75399    -13.424142
   2.68975    -13.443021
   2.62551    -13.464546
   2.56127    -13.485890
   2.49703    -13.504806
   2.43279    -13.519635
   2.36855    -13.529598
   2.30431    -13.534969
   2.24007    -13.536930
   2.17583    -13.537156
   2.11159    -13.537079
   2.04735    -13.537565
   1.98311    -13.538823
   1.91887    -13.540507
   1.85463    -13.542221
   1.79039    -13.543452
   1.72615    -13.543895
   1.72615    -13.543895
   1.68072    -13.543672
   1.63530    -13.543079
   1.58987    -13.542303
   1.54445    -13.541677
   1.49902    -13.541589
   1.45360    -13.542388
   1.40817    -13.544392
   1.36275    -13.547766
   1.31732    -13.552493
   1.27190    -13.558354
   1.22647    -13.565088
   1.18105    -13.572261
   1.13562    -13.579456
   1.09020    -13.586301
   1.04477    -13.592413
   0.99935    -13.597478
   0.95392    -13.601287
   0.90850    -13.603642
   0.86307    -13.604426
   0.86307    -13.604426
   0.81765    -13.602827
   0.77222    -13.598039
   0.72680    -13.590218
   0.68137    -13.579598
   0.63595    -13.566506
   0.59052    -13.551309
   0.54510    -13.534456
   0.49967    -13.516427
   0.45425    -13.497698
   0.40882    -13.478845
   0.36340    -13.460351
   0.31797    -13.442751
   0.27255    -13.430785
   0.22712    -13.422552
   0.18170    -13.415459
   0.13627    -13.409669
   0.09085    -13.405426
   0.04542    -13.402852
   0.00000    -13.402004
 
# Band-Index    5
   0.00000    -13.402004
   0.04542    -13.402852
   0.09085    -13.405426
   0.13627    -13.409668
   0.18170    -13.415459
   0.22712    -13.422552
   0.27255    -13.430785
   0.31797    -13.439941
   0.36340    -13.449700
   0.40882    -13.459859
   0.45425    -13.470113
   0.49967    -13.480170
   0.54510    -13.489774
   0.59052    -13.498662
   0.63595    -13.506602
   0.68137    -13.513372
   0.72680    -13.518846
   0.77222    -13.522850
   0.81765    -13.525293
   0.86307    -13.526089
   0.86307    -13.526089
   0.90850    -13.526038
   0.95392    -13.525816
   0.99935    -13.525452
   1.04477    -13.524960
   1.09020    -13.524343
   1.13562    -13.523625
   1.18105    -13.522838
   1.22647    -13.521977
   1.27190    -13.521079
   1.31732    -13.520187
   1.36275    -13.519289
   1.40817    -13.518415
   1.45360    -13.517614
   1.49902    -13.516903
   1.54445    -13.516286
   1.58987    -13.515810
   1.63530    -13.515434
   1.68072    -13.515209
   1.72615    -13.515135
   1.72615    -13.515135
   1.79039    -13.514468
   1.85463    -13.512442
   1.91887    -13.509060
   1.98311    -13.504499
   2.04735    -13.498748
   2.11159    -13.491951
   2.17583    -13.484253
   2.24007    -13.475766
   2.30431    -13.466759
   2.36855    -13.457440
   2.43279    -13.448068
   2.49703    -13.438869
   2.56127    -13.430139
   2.62551    -13.422198
   2.68975    -13.415273
   2.75399    -13.409645
   2.81823    -13.405421
   2.88247    -13.402857
   2.94671    -13.402004
   2.94671    -13.402004
   3.02539    -13.403795
   3.10407    -13.410899
   3.18275    -13.424793
   3.26143    -13.443290
   3.34010    -13.463002
   3.41878    -13.480668
   3.49746    -13.493612
   3.57614    -13.499602
   3.65482    -13.497373
   3.73350    -13.486533
   3.81217    -13.467726
   3.89085    -13.442679
   3.96953    -13.414278
   4.04821    -13.385825
   4.12689    -13.360698
   4.20556    -13.341076
   4.28424    -13.327578
   4.36292    -13.319852
   4.44160    -13.317334
   4.44160    -13.317334
   4.50584    -13.318289
   4.57008    -13.321354
   4.63432    -13.327293
   4.69856    -13.337642
   4.76280    -13.354270
   4.82704    -13.377245
   4.89128    -13.403007
   4.95552    -13.426830
   5.01976    -13.445148
   5.08400    -13.456102
   5.14824    -13.459217
   5.21249    -13.455281
   5.27673    -13.469131
   5.34097    -13.486546
   5.40521    -13.500822
   5.46945    -13.511913
   5.53369    -13.519807
   5.59793    -13.524538
   5.66217    -13.526089
   5.66217    -13.317334
   5.70759    -13.317437
   5.75302    -13.317742
   5.79844    -13.318222
   5.84387    -13.318904
   5.88929    -13.319748
   5.93472    -13.320686
   5.98014    -13.321782
   6.02557    -13.322960
   6.07099    -13.334283
   6.11642    -13.363025
   6.16184    -13.390898
   6.20727    -13.417283
   6.25269    -13.441519
   6.29812    -13.462980
   6.34354    -13.481207
   6.38897    -13.495845
   6.43439    -13.506496
   6.47982    -13.512958
   6.52524    -13.515135
 
# Band-Index    6
   6.52524    -13.515135
   6.47982    -13.512958
   6.43439    -13.506496
   6.38897    -13.495845
   6.34354    -13.481207
   6.29812    -13.462980
   6.25269    -13.441519
   6.20727    -13.417283
   6.16184    -13.390898
   6.11642    -13.363025
   6.07099    -13.334283
   6.02557    -13.305448
   5.98014    -13.277391
   5.93472    -13.250893
   5.88929    -13.226843
   5.84387    -13.205869
   5.79844    -13.188738
   5.75302    -13.176082
   5.70759    -13.168324
   5.66217    -13.165692
   5.66217    -13.526089
   5.59793    -13.523155
   5.53369    -13.514401
   5.46945    -13.500234
   5.40521    -13.481260
   5.34097    -13.458268
   5.27673    -13.446022
   5.21249    -13.448597
   5.14824    -13.425167
   5.08400    -13.399047
   5.01976    -13.370739
   4.95552    -13.340641
   4.89128    -13.309651
   4.82704    -13.278748
   4.76280    -13.255067
   4.69856    -13.232404
   4.63432    -13.207527
   4.57008    -13.185645
   4.50584    -13.170904
   4.44160    -13.165692
   4.44160    -13.165692
   4.36292    -13.173006
   4.28424    -13.193955
   4.20556    -13.226060
   4.12689    -13.265247
   4.04821    -13.307272
   3.96953    -13.348158
   3.89085    -13.384487
   3.81217    -13.413944
   3.73350    -13.435208
   3.65482    -13.448139
   3.57614    -13.453320
   3.49746    -13.452053
   3.41878    -13.445952
   3.34010    -13.436852
   3.26143    -13.426653
   3.18275    -13.416892
   3.10407    -13.408964
   3.02539    -13.403768
   2.94671    -13.402004
   2.94671    -13.402004
   2.88247    -13.402753
   2.81823    -13.404987
   2.75399    -13.408663
   2.68975    -13.413696
   2.62551    -13.419928
   2.56127    -13.427221
   2.49703    -13.435371
   2.43279    -13.444144
   2.36855    -13.453364
   2.30431    -13.462716
   2.24007    -13.471967
   2.17583    -13.480869
   2.11159    -13.489132
   2.04735    -13.496595
   1.98311    -13.503002
   1.91887    -13.508190
   1.85463    -13.512012
   1.79039    -13.514350
   1.72615    -13.515135
   1.72615    -13.515135
   1.68072    -13.514326
   1.63530    -13.511937
   1.58987    -13.507989
   1.54445    -13.502599
   1.49902    -13.495937
   1.45360    -13.488159
   1.40817    -13.479437
   1.36275    -13.470023
   1.31732    -13.460151
   1.27190    -13.450073
   1.22647    -13.440106
   1.18105    -13.430502
   1.13562    -13.453295
   1.09020    -13.474229
   1.04477    -13.492197
   0.99935    -13.506720
   0.95392    -13.517393
   0.90850    -13.523917
   0.86307    -13.526089
   0.86307    -13.526089
   0.81765    -13.525292
   0.77222    -13.522850
   0.72680    -13.518846
   0.68137    -13.513372
   0.63595    -13.506602
   0.59052    -13.498662
   0.54510    -13.489774
   0.49967    -13.480170
   0.45425    -13.470113
   0.40882    -13.459859
   0.36340    -13.449700
   0.31797    -13.439941
   0.27255    -13.426433
   0.22712    -13.411821
   0.18170    -13.401097
   0.13627    -13.401477
   0.09085    -13.401764
   0.04542    -13.401943
   0.00000    -13.402004
 
# Band-Index    7
   0.00000    -13.376024
   0.04542    -13.377527
   0.09085    -13.381987
   0.13627    -13.389336
   0.18170    -13.399377
   0.22712    -13.400569
   0.27255    -13.400001
   0.31797    -13.399375
   0.36340    -13.398689
   0.40882    -13.397990
   0.45425    -13.397281
   0.49967    -13.396589
   0.54510    -13.395918
   0.59052    -13.395294
   0.63595    -13.394734
   0.68137    -13.394252
   0.72680    -13.393862
   0.77222    -13.393575
   0.81765    -13.393399
   0.86307    -13.393308
   0.86307    -13.393308
   0.90850    -13.394197
   0.95392    -13.396738
   0.99935    -13.400888
   1.04477    -13.406522
   1.09020    -13.413457
   1.13562    -13.421541
   1.18105    -13.429984
   1.22647    -13.404949
   1.27190    -13.378863
   1.31732    -13.352517
   1.36275    -13.332174
   1.40817    -13.334320
   1.45360    -13.335392
   1.49902    -13.335560
   1.54445    -13.334999
   1.58987    -13.334120
   1.63530    -13.333232
   1.68072    -13.332572
   1.72615    -13.332334
   1.72615    -13.332334
   1.79039    -13.332822
   1.85463    -13.334245
   1.91887    -13.336506
   1.98311    -13.339559
   2.04735    -13.343139
   2.11159    -13.347130
   2.17583    -13.351333
   2.24007    -13.355419
   2.30431    -13.367125
   2.36855    -13.375534
   2.43279    -13.380826
   2.49703    -13.383954
   2.56127    -13.385571
   2.62551    -13.386214
   2.68975    -13.385946
   2.75399    -13.384597
   2.81823    -13.381668
   2.88247    -13.377844
   2.94671    -13.376024
   2.94671    -13.376024
   3.02539    -13.377194
   3.10407    -13.378555
   3.18275    -13.377122
   3.26143    -13.372799
   3.34010    -13.366324
   3.41878    -13.358090
   3.49746    -13.348420
   3.57614    -13.337407
   3.65482    -13.325242
   3.73350    -13.312012
   3.81217    -13.297580
